"CdS32nm_on_SLG_R"
"Wavelength nm."	"R%"
300.00000	27.44267
302.00000	27.52016
304.00000	27.71770
306.00000	27.90088
308.00000	28.12473
310.00000	28.25880
312.00000	28.39747
314.00000	28.53728
316.00000	28.64758
318.00000	28.76788
320.00000	28.84759
322.00000	28.98219
324.00000	29.11669
326.00000	29.22089
328.00000	29.29602
330.00000	29.37433
332.00000	29.48311
334.00000	29.60730
336.00000	29.66379
338.00000	29.73968
340.00000	29.82198
342.00000	29.92547
344.00000	29.99874
346.00000	30.05854
348.00000	30.12075
350.00000	30.18078
352.00000	30.22892
354.00000	30.28066
356.00000	30.34328
358.00000	30.39901
360.00000	30.45273
362.00000	30.47843
364.00000	30.51942
366.00000	30.55490
368.00000	30.61505
370.00000	30.65606
372.00000	30.70110
374.00000	30.73088
376.00000	30.75245
378.00000	30.79245
380.00000	30.83369
382.00000	30.87552
384.00000	30.90474
386.00000	30.92945
388.00000	30.96399
390.00000	30.99223
392.00000	31.03089
394.00000	31.07353
396.00000	31.12906
398.00000	31.16207
400.00000	31.19197
402.00000	31.20503
404.00000	31.22655
406.00000	31.25040
408.00000	31.27026
410.00000	31.30842
412.00000	31.33312
414.00000	31.36896
416.00000	31.39184
418.00000	31.42978
420.00000	31.46023
422.00000	31.49943
424.00000	31.52435
426.00000	31.55751
428.00000	31.59093
430.00000	31.62193
432.00000	31.64828
434.00000	31.67045
436.00000	31.70977
438.00000	31.74894
440.00000	31.79585
442.00000	31.83511
444.00000	31.86830
446.00000	31.89806
448.00000	31.92775
450.00000	31.97249
452.00000	32.02089
454.00000	32.06423
456.00000	32.10301
458.00000	32.14890
460.00000	32.19718
462.00000	32.25860
464.00000	32.31436
466.00000	32.39842
468.00000	32.48808
470.00000	32.60003
472.00000	32.70571
474.00000	32.81479
476.00000	32.92038
478.00000	33.03555
480.00000	33.14657
482.00000	33.26331
484.00000	33.37895
486.00000	33.49682
488.00000	33.61401
490.00000	33.73204
492.00000	33.84744
494.00000	33.94888
496.00000	34.03469
498.00000	34.11399
500.00000	34.19054
502.00000	34.25917
504.00000	34.30065
506.00000	34.31690
508.00000	34.31049
510.00000	34.28983
512.00000	34.25174
514.00000	34.18514
516.00000	34.10655
518.00000	33.99430
520.00000	33.87252
522.00000	33.71492
524.00000	33.54665
526.00000	33.33936
528.00000	33.13506
530.00000	32.88279
532.00000	32.65517
534.00000	32.40992
536.00000	32.19481
538.00000	31.95687
540.00000	31.71410
542.00000	31.48674
544.00000	31.26310
546.00000	31.05506
548.00000	30.82835
550.00000	30.59417
552.00000	30.36655
554.00000	30.14758
556.00000	29.94435
558.00000	29.73702
560.00000	29.52604
562.00000	29.32122
564.00000	29.10468
566.00000	28.90239
568.00000	28.69894
570.00000	28.51517
572.00000	28.33199
574.00000	28.15038
576.00000	27.96874
578.00000	27.79345
580.00000	27.63248
582.00000	27.47685
584.00000	27.31802
586.00000	27.16361
588.00000	27.01663
590.00000	26.87434
592.00000	26.74020
594.00000	26.59026
596.00000	26.44280
598.00000	26.28919
600.00000	26.13861
602.00000	25.99903
604.00000	25.85908
606.00000	25.72651
608.00000	25.59955
610.00000	25.46428
612.00000	25.33936
614.00000	25.20210
616.00000	25.07221
618.00000	24.93975
620.00000	24.81100
622.00000	24.68588
624.00000	24.56905
626.00000	24.45894
628.00000	24.34641
630.00000	24.22811
632.00000	24.11832
634.00000	24.00780
636.00000	23.91203
638.00000	23.79447
640.00000	23.69138
642.00000	23.57532
644.00000	23.47535
646.00000	23.35567
648.00000	23.25009
650.00000	23.14576
652.00000	23.05238
654.00000	22.93731
656.00000	22.81530
658.00000	22.69374
660.00000	22.60180
662.00000	22.51831
664.00000	22.45242
666.00000	22.37126
668.00000	22.30236
670.00000	22.24299
672.00000	22.18274
674.00000	22.11789
676.00000	22.02912
678.00000	21.95228
680.00000	21.86226
682.00000	21.77604
684.00000	21.68714
686.00000	21.61003
688.00000	21.53348
690.00000	21.45970
692.00000	21.38932
694.00000	21.30785
696.00000	21.22831
698.00000	21.14449
700.00000	21.06318
702.00000	20.97666
704.00000	20.90709
706.00000	20.84184
708.00000	20.77658
710.00000	20.70130
712.00000	20.62773
714.00000	20.56942
716.00000	20.50859
718.00000	20.44381
720.00000	20.37143
722.00000	20.30223
724.00000	20.23822
726.00000	20.16917
728.00000	20.09030
730.00000	20.04203
732.00000	19.99350
734.00000	19.96193
736.00000	19.89330
738.00000	19.82433
740.00000	19.75521
742.00000	19.69207
744.00000	19.62908
746.00000	19.57005
748.00000	19.52155
750.00000	19.46798
752.00000	19.41536
754.00000	19.33894
756.00000	19.27991
758.00000	19.21120
760.00000	19.15535
762.00000	19.08339
764.00000	19.02898
766.00000	18.99399
768.00000	18.92615
770.00000	18.85063
772.00000	18.76370
774.00000	18.73488
776.00000	18.70590
778.00000	18.66667
780.00000	18.61353
782.00000	18.55968
784.00000	18.52917
786.00000	18.50419
788.00000	18.46317
790.00000	18.42321
792.00000	18.34811
794.00000	18.28374
796.00000	18.23069
798.00000	18.19498
800.00000	18.14974
802.00000	18.08129
804.00000	18.03310
806.00000	17.98815
808.00000	17.94182
810.00000	17.88825
812.00000	17.82578
814.00000	17.79135
816.00000	17.74937
818.00000	17.71044
820.00000	17.64299
822.00000	17.56358
824.00000	17.50187
826.00000	17.42628
828.00000	17.40137
830.00000	17.34406
832.00000	17.31378
834.00000	17.23337
836.00000	17.17311
838.00000	17.12827
840.00000	17.11350
842.00000	17.05711
844.00000	16.98489
846.00000	16.90965
848.00000	16.83870
850.00000	16.80346
852.00000	16.75178
854.00000	16.72778
856.00000	16.64460
858.00000	16.62397
860.00000	16.53065
862.00000	16.50868
864.00000	16.46958
866.00000	16.37758
868.00000	16.39234
870.00000	16.29860
872.00000	16.40574
874.00000	15.83458
876.00000	15.78475
878.00000	15.40790
880.00000	15.57551
882.00000	15.25514
884.00000	15.32369
886.00000	15.27236
888.00000	15.34320
890.00000	15.48114
892.00000	15.55649
894.00000	15.39609
896.00000	15.23859
898.00000	15.03702
900.00000	15.27371
902.00000	15.20455
904.00000	15.34291
906.00000	15.09170
908.00000	15.10284
910.00000	14.92711
912.00000	14.96480
914.00000	14.80065
916.00000	14.85035
918.00000	14.78736
920.00000	14.68385
922.00000	14.74885
924.00000	14.67680
926.00000	14.74054
928.00000	14.60251
930.00000	14.76467
932.00000	14.87407
934.00000	14.94232
936.00000	14.73160
938.00000	14.56469
940.00000	14.49485
942.00000	14.53307
944.00000	14.51652
946.00000	14.47894
948.00000	14.44579
950.00000	14.31957
952.00000	14.23838
954.00000	14.11378
956.00000	14.14672
958.00000	14.13413
960.00000	14.15592
962.00000	14.16523
964.00000	14.13943
966.00000	14.15354
968.00000	14.15537
970.00000	14.14872
972.00000	14.09114
974.00000	13.97461
976.00000	13.88677
978.00000	13.79040
980.00000	13.76345
982.00000	13.81514
984.00000	13.85430
986.00000	13.83769
988.00000	13.71532
990.00000	13.67880
992.00000	13.72207
994.00000	13.72332
996.00000	13.73088
998.00000	13.69732
1000.00000	13.66671
1002.00000	13.56622
1004.00000	13.44830
1006.00000	13.41547
1008.00000	13.42388
1010.00000	13.41553
1012.00000	13.39107
1014.00000	13.36028
1016.00000	13.35494
1018.00000	13.37756
1020.00000	13.37804
1022.00000	13.33601
1024.00000	13.29672
1026.00000	13.27302
1028.00000	13.24290
1030.00000	13.24165
1032.00000	13.18490
1034.00000	13.16137
1036.00000	13.11459
1038.00000	13.12541
1040.00000	13.15760
1042.00000	13.11685
1044.00000	13.07092
1046.00000	12.98755
1048.00000	12.97128
1050.00000	12.93699
1052.00000	12.93542
1054.00000	12.90849
1056.00000	12.93882
1058.00000	12.91601
1060.00000	12.93148
1062.00000	12.82508
1064.00000	12.81956
1066.00000	12.73187
1068.00000	12.75368
1070.00000	12.70596
1072.00000	12.66580
1074.00000	12.62214
1076.00000	12.64371
1078.00000	12.65668
1080.00000	12.63981
1082.00000	12.62108
1084.00000	12.56002
1086.00000	12.54579
1088.00000	12.48797
1090.00000	12.49802
1092.00000	12.45166
1094.00000	12.43494
1096.00000	12.42001
1098.00000	12.41621
1100.00000	12.41699
1102.00000	12.38541
1104.00000	12.35102
1106.00000	12.30968
1108.00000	12.28424
1110.00000	12.24028
1112.00000	12.18410
1114.00000	12.14281
1116.00000	12.11610
1118.00000	12.08263
1120.00000	12.06385
1122.00000	12.09766
1124.00000	12.08580
1126.00000	12.08160
1128.00000	12.02719
1130.00000	12.06779
1132.00000	12.03303
1134.00000	12.03267
1136.00000	12.00605
1138.00000	12.03709
1140.00000	12.00802
1142.00000	11.94511
1144.00000	11.90025
1146.00000	11.90118
1148.00000	11.90618
1150.00000	11.87498
1152.00000	11.88194
1154.00000	11.83287
1156.00000	11.81770
1158.00000	11.70766
1160.00000	11.72100
1162.00000	11.74512
1164.00000	11.78101
1166.00000	11.74126
1168.00000	11.63215
1170.00000	11.60643
1172.00000	11.60959
1174.00000	11.64601
1176.00000	11.62496
1178.00000	11.59434
1180.00000	11.57681
1182.00000	11.56530
1184.00000	11.52018
1186.00000	11.50041
1188.00000	11.46597
1190.00000	11.48189
1192.00000	11.46113
1194.00000	11.44508
1196.00000	11.41496
1198.00000	11.38976
1200.00000	11.38535
1202.00000	11.35785
1204.00000	11.36741
1206.00000	11.37349
1208.00000	11.36834
1210.00000	11.33675
1212.00000	11.32355
1214.00000	11.32577
1216.00000	11.29286
1218.00000	11.25322
1220.00000	11.21383
1222.00000	11.19934
1224.00000	11.18244
1226.00000	11.18470
1228.00000	11.16956
1230.00000	11.14896
1232.00000	11.09998
1234.00000	11.06957
1236.00000	11.05856
1238.00000	11.11778
1240.00000	11.09742
1242.00000	11.05986
1244.00000	11.00896
1246.00000	11.01117
1248.00000	11.01267
1250.00000	10.95992
1252.00000	10.94700
1254.00000	10.91471
1256.00000	10.89819
1258.00000	10.85837
1260.00000	10.84627
1262.00000	10.87305
1264.00000	10.86720
1266.00000	10.85231
1268.00000	10.87343
1270.00000	10.86661
1272.00000	10.86905
1274.00000	10.76207
1276.00000	10.80040
1278.00000	10.78225
1280.00000	10.80131
1282.00000	10.72586
1284.00000	10.72318
1286.00000	10.74568
1288.00000	10.68600
1290.00000	10.61608
1292.00000	10.53436
1294.00000	10.56867
1296.00000	10.56854
1298.00000	10.60746
1300.00000	10.63654
1302.00000	10.64916
1304.00000	10.61794
1306.00000	10.57830
1308.00000	10.54718
1310.00000	10.51264
1312.00000	10.45177
1314.00000	10.45983
1316.00000	10.44508
1318.00000	10.44717
1320.00000	10.40855
1322.00000	10.40352
1324.00000	10.38883
1326.00000	10.35305
1328.00000	10.33407
1330.00000	10.33906
1332.00000	10.37660
1334.00000	10.40214
1336.00000	10.37966
1338.00000	10.32374
1340.00000	10.26232
1342.00000	10.28756
1344.00000	10.31463
1346.00000	10.32087
1348.00000	10.29121
1350.00000	10.27208
1352.00000	10.28230
1354.00000	10.24725
1356.00000	10.22162
1358.00000	10.16830
1360.00000	10.16496
1362.00000	10.17912
1364.00000	10.17797
1366.00000	10.13279
1368.00000	10.02356
1370.00000	10.03521
1372.00000	10.02670
1374.00000	10.08319
1376.00000	10.02243
1378.00000	10.05028
1380.00000	10.02682
1382.00000	10.00867
1384.00000	9.96370
1386.00000	9.92693
1388.00000	9.96814
1390.00000	9.94838
1392.00000	9.95563
1394.00000	9.91015
1396.00000	9.94173
1398.00000	9.94648
1400.00000	9.98389
1402.00000	9.93087
1404.00000	9.89492
1406.00000	9.81540
1408.00000	9.76480
1410.00000	9.74589
1412.00000	9.75658
1414.00000	9.80307
1416.00000	9.77100
1418.00000	9.75065
1420.00000	9.72245
1422.00000	9.71314
1424.00000	9.68227
1426.00000	9.63295
1428.00000	9.58363
1430.00000	9.55380
1432.00000	9.58321
1434.00000	9.63454
1436.00000	9.66894
1438.00000	9.61165
1440.00000	9.56037
1442.00000	9.50524
1444.00000	9.55112
1446.00000	9.53339
1448.00000	9.54000
1450.00000	9.44963
1452.00000	9.47885
1454.00000	9.45808
1456.00000	9.49017
1458.00000	9.51645
1460.00000	9.50877
1462.00000	9.51357
1464.00000	9.47807
1466.00000	9.52237
1468.00000	9.44292
1470.00000	9.40708
1472.00000	9.27137
1474.00000	9.26368
1476.00000	9.30341
1478.00000	9.32180
1480.00000	9.28747
1482.00000	9.19848
1484.00000	9.22993
1486.00000	9.33704
1488.00000	9.42056
1490.00000	9.43992
1492.00000	9.40421
1494.00000	9.35836
1496.00000	9.38843
1498.00000	9.37881
1500.00000	9.30961
1502.00000	9.18841
1504.00000	9.18033
1506.00000	9.23274
1508.00000	9.20138
1510.00000	9.23405
1512.00000	9.17484
1514.00000	9.26468
1516.00000	9.18584
1518.00000	9.23915
1520.00000	9.22429
1522.00000	9.21321
1524.00000	9.15236
1526.00000	9.16762
1528.00000	9.20498
1530.00000	9.22194
1532.00000	9.12845
1534.00000	9.08559
1536.00000	9.04855
1538.00000	9.09868
1540.00000	9.10100
1542.00000	9.15678
1544.00000	9.21111
1546.00000	9.24687
1548.00000	9.20045
1550.00000	9.08427
1552.00000	9.10051
1554.00000	9.02391
1556.00000	9.00299
1558.00000	8.94989
1560.00000	9.09846
1562.00000	9.01143
1564.00000	8.90969
1566.00000	8.89535
1568.00000	8.96663
1570.00000	8.96315
1572.00000	8.94653
1574.00000	8.97311
1576.00000	9.05007
1578.00000	8.99118
1580.00000	8.94647
1582.00000	8.90899
1584.00000	8.90656
1586.00000	8.88890
1588.00000	8.82265
1590.00000	8.70996
1592.00000	8.69472
1594.00000	8.74807
1596.00000	8.71697
1598.00000	8.80437
1600.00000	8.64742
1602.00000	8.82296
1604.00000	8.78555
1606.00000	8.90699
1608.00000	8.79047
1610.00000	8.76750
1612.00000	8.66187
1614.00000	8.76022
1616.00000	8.73757
1618.00000	8.83979
1620.00000	8.68241
1622.00000	8.73859
1624.00000	8.76992
1626.00000	8.81722
1628.00000	8.70131
1630.00000	8.63756
1632.00000	8.61124
1634.00000	8.59534
1636.00000	8.61100
1638.00000	8.59059
1640.00000	8.58809
1642.00000	8.59665
1644.00000	8.69511
1646.00000	8.68769
1648.00000	8.56736
1650.00000	8.33060
1652.00000	8.31779
1654.00000	8.31164
1656.00000	8.43458
1658.00000	8.53271
1660.00000	8.61280
1662.00000	8.67771
1664.00000	8.63447
1666.00000	8.58541
1668.00000	8.51975
1670.00000	8.42736
1672.00000	8.44651
1674.00000	8.37085
1676.00000	8.39189
1678.00000	8.43144
1680.00000	8.31479
1682.00000	8.38174
1684.00000	8.42981
1686.00000	8.63489
1688.00000	8.67984
1690.00000	8.67263
1692.00000	8.72010
1694.00000	8.62630
1696.00000	8.60050
1698.00000	8.53003
1700.00000	8.46535
1702.00000	8.41351
1704.00000	8.35586
1706.00000	8.39478
1708.00000	8.29883
1710.00000	8.30469
1712.00000	8.27654
1714.00000	8.35382
1716.00000	8.14963
1718.00000	8.14419
1720.00000	7.99162
1722.00000	8.10835
1724.00000	8.16450
1726.00000	8.31327
1728.00000	8.39218
1730.00000	8.38104
1732.00000	8.27742
1734.00000	8.31678
1736.00000	8.21195
1738.00000	8.26448
1740.00000	8.22774
1742.00000	8.18110
1744.00000	8.17795
1746.00000	8.05346
1748.00000	8.05930
1750.00000	8.07212
1752.00000	8.11222
1754.00000	8.00420
1756.00000	7.89354
1758.00000	7.79713
1760.00000	8.03614
1762.00000	8.18274
1764.00000	8.25140
1766.00000	8.24430
1768.00000	8.11140
1770.00000	8.14656
1772.00000	8.08582
1774.00000	8.04439
1776.00000	7.97831
1778.00000	7.96108
1780.00000	8.11913
1782.00000	8.25941
1784.00000	8.25200
1786.00000	8.03893
1788.00000	7.96542
1790.00000	7.82426
1792.00000	7.95707
1794.00000	7.80826
1796.00000	7.87455
1798.00000	7.94107
1800.00000	8.00592
1802.00000	8.10051
1804.00000	7.78331
1806.00000	7.67916
1808.00000	7.63912
1810.00000	7.79540
1812.00000	7.76797
1814.00000	7.64560
1816.00000	7.61594
1818.00000	7.80061
1820.00000	7.85008
1822.00000	7.71829
1824.00000	7.72750
1826.00000	7.74875
1828.00000	7.91903
1830.00000	7.86462
1832.00000	7.88142
1834.00000	7.88814
1836.00000	8.02306
1838.00000	8.09138
1840.00000	7.93589
1842.00000	7.77276
1844.00000	7.70750
1846.00000	7.84709
1848.00000	7.84154
1850.00000	7.81853
1852.00000	7.83114
1854.00000	7.86911
1856.00000	7.79343
1858.00000	7.81489
1860.00000	7.60166
1862.00000	7.69248
1864.00000	7.60176
1866.00000	7.80704
1868.00000	7.69708
1870.00000	7.61512
1872.00000	7.54167
1874.00000	7.48145
1876.00000	7.69321
1878.00000	7.69140
1880.00000	7.76030
1882.00000	7.53310
1884.00000	7.53733
1886.00000	7.59755
1888.00000	7.54589
1890.00000	7.46051
1892.00000	7.37389
1894.00000	7.47970
1896.00000	7.57335
1898.00000	7.69791
1900.00000	7.43845
1902.00000	7.30087
1904.00000	7.02160
1906.00000	6.97937
1908.00000	6.99952
1910.00000	7.09292
1912.00000	7.39850
1914.00000	7.44468
1916.00000	7.40181
1918.00000	7.30186
1920.00000	7.35534
1922.00000	7.37575
1924.00000	7.42438
1926.00000	7.15045
1928.00000	6.87894
1930.00000	6.99570
1932.00000	7.44481
1934.00000	7.47946
1936.00000	7.21063
1938.00000	6.92961
1940.00000	7.31700
1942.00000	7.34130
1944.00000	7.31252
1946.00000	6.89222
1948.00000	6.88411
1950.00000	6.81782
1952.00000	7.02836
1954.00000	7.13568
1956.00000	6.98862
1958.00000	7.13440
1960.00000	7.05770
1962.00000	7.26104
1964.00000	7.02576
1966.00000	7.07228
1968.00000	7.02820
1970.00000	7.03658
1972.00000	6.70969
1974.00000	6.82124
1976.00000	6.63257
1978.00000	7.22773
1980.00000	7.13668
1982.00000	7.53128
1984.00000	7.15154
1986.00000	6.84870
1988.00000	6.60828
1990.00000	6.76866
1992.00000	7.05036
1994.00000	7.20098
1996.00000	7.19913
1998.00000	7.13197
2000.00000	7.01237
