Reference Cell: ISE_08
Sample Name: Ref

SB
360Hz, 22°C, bias light, room lights on, 30dB, beam spot smaller
01.10.2012 10:55:37
Ref. Frequency:229
1:lambda
2:current
3:noise
4:phase
5:Ref.value
6:SR
7:IPCE
***
3.650000E+2	9.400000E-8	2.000000E-8	1.371600E+2	1.193487E+5	1.121878E-2	3.814384E-2
3.700000E+2	4.480000E-7	-2.500000E-9	1.368200E+2	2.727488E+5	1.221915E-1	4.098368E-1
3.800000E+2	4.980000E-7	-5.000000E-8	1.505400E+2	1.341509E+5	6.680715E-2	2.181781E-1
3.900000E+2	1.064000E-6	2.600000E-8	1.406000E+2	1.121723E+5	1.193513E-1	3.797820E-1
4.000000E+2	1.698500E-6	-1.400000E-8	1.430700E+2	8.441793E+4	1.433839E-1	4.448484E-1
4.100000E+2	2.473500E-6	9.650000E-8	1.392700E+2	6.403138E+4	1.583816E-1	4.793941E-1
4.200000E+2	3.295500E-6	9.600000E-8	1.404300E+2	5.229132E+4	1.723260E-1	5.091824E-1
4.300000E+2	4.211000E-6	-2.490000E-7	1.461100E+2	4.492938E+4	1.891976E-1	5.460331E-1
4.400000E+2	5.234000E-6	-8.600000E-8	1.456100E+2	3.865161E+4	2.023025E-1	5.705851E-1
4.500000E+2	5.881000E-6	-2.020000E-7	1.435400E+2	3.383326E+4	1.989734E-1	5.487244E-1
4.600000E+2	7.209000E-6	-2.300000E-8	1.413900E+2	3.028699E+4	2.183389E-1	5.890404E-1
4.700000E+2	8.158000E-6	1.980000E-7	1.416300E+2	2.813306E+4	2.295095E-1	6.060028E-1
4.800000E+2	9.984000E-6	-1.140000E-7	1.415600E+2	2.495639E+4	2.491646E-1	6.441943E-1
4.900000E+2	1.156400E-5	1.920000E-7	1.404800E+2	2.297808E+4	2.657185E-1	6.729728E-1
5.000000E+2	1.367800E-5	2.200000E-8	1.408400E+2	2.116983E+4	2.895609E-1	7.186902E-1
5.100000E+2	1.553600E-5	-1.300000E-7	1.409300E+2	1.918061E+4	2.979900E-1	7.251089E-1
5.200000E+2	1.789000E-5	9.000000E-8	1.409300E+2	1.788554E+4	3.199723E-1	7.636262E-1
5.400000E+2	2.238000E-5	9.500000E-8	1.410000E+2	1.591191E+4	3.561085E-1	8.183902E-1
5.600000E+2	2.625500E-5	-1.000000E-8	1.412300E+2	1.483621E+4	3.895247E-1	8.632145E-1
6.200000E+2	3.645500E-5	-2.300000E-7	1.411800E+2	1.209285E+4	4.408448E-1	8.824007E-1
6.400000E+2	3.842000E-5	1.200000E-7	1.407600E+2	1.166765E+4	4.482711E-1	8.692257E-1
6.600000E+2	4.055000E-5	-1.600000E-7	1.406300E+2	1.141856E+4	4.630226E-1	8.706228E-1
6.800000E+2	4.186500E-5	-8.000000E-8	1.401400E+2	1.147042E+4	4.802091E-1	8.763817E-1
7.000000E+2	4.145000E-5	1.030000E-6	1.398300E+2	1.161755E+4	4.815474E-1	8.537148E-1
7.600000E+2	7.814000E-5	2.000000E-8	1.406600E+2	6.477408E+3	5.061447E-1	8.264810E-1
7.900000E+2	8.804000E-5	-3.400000E-7	1.409700E+2	5.835074E+3	5.137199E-1	8.069955E-1
8.200000E+2	9.754000E-5	-1.800000E-7	1.406100E+2	5.636226E+3	5.497575E-1	8.320110E-1
8.500000E+2	1.085600E-4	2.000000E-7	1.399800E+2	5.045895E+3	5.477824E-1	7.997622E-1
8.800000E+2	1.217000E-4	1.500000E-6	1.405300E+2	4.273291E+3	5.200595E-1	7.334021E-1
9.100000E+2	1.583000E-4	-1.780000E-6	1.411800E+2	3.536415E+3	5.598145E-1	7.634393E-1
9.400000E+2	1.752500E-4	-3.500000E-7	1.403900E+2	3.187593E+3	5.586257E-1	7.375047E-1
9.600000E+2	1.656500E-4	2.000000E-6	1.402700E+2	3.259975E+3	5.400149E-1	6.980817E-1
9.800000E+2	1.732500E-4	9.500000E-7	1.405100E+2	3.165426E+3	5.484101E-1	6.944662E-1
9.900000E+2	1.777500E-4	2.500000E-7	1.404700E+2	3.114469E+3	5.535969E-1	6.939532E-1
1.000000E+3	1.703500E-4	1.050000E-6	1.402100E+2	2.975388E+3	5.068573E-1	6.290100E-1
1.010000E+3	1.658500E-4	-1.150000E-6	1.409400E+2	2.996432E+3	4.969582E-1	6.106190E-1
1.020000E+3	1.609000E-4	-2.000000E-7	1.408900E+2	2.937552E+3	4.726521E-1	5.750601E-1
1.030000E+3	1.542000E-4	-3.500000E-7	1.410400E+2	2.938699E+3	4.531474E-1	5.459766E-1
1.040000E+3	1.352200E-4	3.000000E-7	1.407700E+2	2.950747E+3	3.990000E-1	4.761144E-1
1.050000E+3	1.137800E-4	1.040000E-6	1.407300E+2	2.916453E+3	3.318340E-1	3.921962E-1
1.060000E+3	9.448000E-5	-9.600000E-7	1.413800E+2	2.910602E+3	2.749937E-1	3.219501E-1
1.070000E+3	8.022000E-5	-4.000000E-8	1.407600E+2	3.057728E+3	2.452909E-1	2.844916E-1
1.080000E+3	6.398000E-5	-2.000000E-8	1.404000E+2	2.971185E+3	1.900964E-1	2.184349E-1
1.090000E+3	4.738000E-5	6.000000E-8	1.405800E+2	3.113112E+3	1.474992E-1	1.679326E-1
1.100000E+3	3.364000E-5	-8.000000E-8	1.409300E+2	3.157429E+3	1.062159E-1	1.198309E-1
1.110000E+3	2.285000E-5	-2.850000E-7	1.411100E+2	3.180813E+3	7.268158E-2	8.125931E-2
1.120000E+3	1.558000E-5	4.000000E-8	1.410200E+2	3.344814E+3	5.211220E-2	5.774218E-2
1.130000E+3	9.814000E-6	-8.400000E-8	1.405000E+2	3.362263E+3	3.299725E-2	3.623857E-2
1.140000E+3	6.262000E-6	2.700000E-7	1.394900E+2	3.529809E+3	2.210366E-2	2.406197E-2
1.150000E+3	3.335000E-6	-3.170000E-7	1.438800E+2	3.701178E+3	1.234343E-2	1.332017E-2
1.160000E+3	2.277000E-6	1.690000E-7	1.385200E+2	3.709252E+3	8.445967E-3	9.035728E-3
1.170000E+3	1.314000E-6	-4.800000E-8	1.443600E+2	4.224127E+3	5.550503E-3	5.887328E-3
1.180000E+3	7.455000E-7	-6.200000E-8	1.395500E+2	5.262987E+3	3.923557E-3	4.126385E-3
